V_AgNO3;Conductivity;V0
0.03;1.2;0.03
0.2;1.196;
0.4;1.192;
0.6;1.187;
0.8;1.183;
1;1.178;
1.2;1.174;
1.4;1.169;
1.6;1.165;
1.8;1.161;
2;1.156;
2.2;1.153;
2.4;1.149;
2.6;1.145;
2.8;1.141;
3;1.137;
3.2;1.133;
3.4;1.129;
3.6;1.126;
3.8;1.121;
4;1.119;
4.2;1.135;
4.4;1.185;
4.6;1.23;
4.8;1.278;
5;1.326;
5.2;1.38;
5.4;1.426;
5.6;1.473;
5.8;1.522;
6;1.567;
6.2;1.62;
